# wavelength,transmittance
4.100000000000000000e+02,7.750065750017682176e-05
4.110000000000000000e+02,1.279481071917261598e-04
4.120000000000000000e+02,2.314172977525117032e-04
4.130000000000000000e+02,4.518479796228849939e-04
4.140000000000000000e+02,1.029811950728133640e-03
4.150000000000000000e+02,2.607817649373078434e-03
4.160000000000000000e+02,7.413209834170369529e-03
4.170000000000000000e+02,2.479456739060908327e-02
4.180000000000000000e+02,8.908979449953442764e-02
4.190000000000000000e+02,2.808799177986626150e-01
4.200000000000000000e+02,5.183542441605786255e-01
4.210000000000000000e+02,5.946876414442212599e-01
4.220000000000000000e+02,5.981207766124139180e-01
4.230000000000000000e+02,5.997485204204354714e-01
4.240000000000000000e+02,6.018285726515713030e-01
4.250000000000000000e+02,6.053173593272709319e-01
4.260000000000000000e+02,6.107714185639466775e-01
4.270000000000000000e+02,6.135399075718583894e-01
4.280000000000000000e+02,6.134295559678264453e-01
4.290000000000000000e+02,6.143261940569226809e-01
4.300000000000000000e+02,6.134534228065608996e-01
4.310000000000000000e+02,6.096440703425614061e-01
4.320000000000000000e+02,6.081522204155339617e-01
4.330000000000000000e+02,6.080745371277385125e-01
4.340000000000000000e+02,6.141841269632575262e-01
4.350000000000000000e+02,6.230144323242939874e-01
4.360000000000000000e+02,6.284896617990607393e-01
4.370000000000000000e+02,6.129689581403588994e-01
4.380000000000000000e+02,5.334694117012586112e-01
4.390000000000000000e+02,3.508799690806768123e-01
4.400000000000000000e+02,1.656758843335689180e-01
4.410000000000000000e+02,6.490840144988968552e-02
4.420000000000000000e+02,2.420892162406380888e-02
4.430000000000000000e+02,9.689743657277505653e-03
4.440000000000000000e+02,4.240437340831511130e-03
4.450000000000000000e+02,2.075900534847815657e-03
4.460000000000000000e+02,1.072959240067531458e-03
4.470000000000000000e+02,6.107313559245835253e-04
4.480000000000000000e+02,3.701510615441398343e-04
4.490000000000000000e+02,2.333417837507600120e-04
4.500000000000000000e+02,1.487413380308847278e-04
4.510000000000000000e+02,9.651652910042321921e-05
4.520000000000000000e+02,6.228474858143834812e-05
4.530000000000000000e+02,4.251655194572422346e-05
4.540000000000000000e+02,3.471086818730982252e-05
